data_pbso4

_space_group_name_H-M_alt              'P n m a'
_space_group_IT_coordinate_system_code  abc

_cell_length_a       8.46924(7)
_cell_length_b       5.391
_cell_length_c       6.9506
_cell_angle_alpha   90.0
_cell_angle_beta    90.0
_cell_angle_gamma   90.0

loop_
 _atom_site_label
 _atom_site_type_symbol
 _atom_site_fract_x
 _atom_site_fract_y
 _atom_site_fract_z
 _atom_site_occupancy
 _atom_site_adp_type
 _atom_site_B_iso_or_equiv
  Pb  Pb   0.1876   0.25   0.167   1.0   Biso  1.3729
  S   S    0.0654   0.25   0.684   1.0   Biso  0.3777
  O1  O    0.9082   0.25   0.5954  1.0   Biso  1.9764
  O2  O    0.1935   0.25   0.5432  1.0   Biso  1.4456
  O3  O    0.0811   0.0272 0.8086  1.0   Biso  1.2822

data_pnd

_range_2theta_min   10.0
_range_2theta_max  155.45

_setup_wavelength      1.91
_setup_offset_2theta  -0.1406

_pd_instr_resolution_U  0.139()
_pd_instr_resolution_V -0.412()
_pd_instr_resolution_W  0.386()
_pd_instr_resolution_X  0.0
_pd_instr_resolution_Y  0.088()

loop_
 _phase_label
 _phase_scale
  pbso4   1.460()

loop_
 _pd_background_2theta
 _pd_background_intensity
   11.0   206.1624
   15.0   194.7500
   20.0   194.5050
   30.0   188.4375
   50.0   207.7633
   70.0   201.7002
  120.0   244.4525
  153.0   226.0595

loop_
 _pd_meas_2theta
 _pd_meas_intensity
 _pd_meas_intensity_sigma
    10.0    220.0   14.8324
   10.05    214.0   14.6287
    10.1    219.0   14.7986
   10.15    224.0   14.9666
    10.2    198.0   14.0712
   10.25    229.0   15.1327
    10.3    224.0   14.9666
   10.35    216.0   14.6969
    10.4    202.0   14.2127
   10.45    229.0   15.1327
    10.5    202.0   14.2127
   10.55    215.0   14.6629
    10.6    215.0   14.6629
   10.65    196.0      14.0
    10.7    235.0   15.3297
   10.75    207.0   14.3875
    10.8    205.0   14.3178
   10.85    238.0   15.4272
    10.9    202.0   14.2127
   10.95    213.0   14.5945
    11.0    226.0   15.0333
   11.05    198.0   14.0712
    11.1    222.0   14.8997
   11.15    186.0   13.6382
    11.2    216.0   14.6969
   11.25    218.0   14.7648
    11.3    225.0      15.0
   11.35    200.0   14.1421
    11.4    196.0      14.0
   11.45    224.0   14.9666
    11.5    199.0   14.1067
   11.55    204.0   14.2829
    11.6    189.0   13.7477
   11.65    211.0   14.5258
    11.7    190.0    13.784
   11.75    184.0   13.5647
    11.8    204.0   14.2829
   11.85    204.0   14.2829
    11.9    219.0   14.7986
   11.95    207.0   14.3875
    12.0    227.0   15.0665
   12.05    211.0   10.2713
    12.1    193.0    9.8234
   12.15    206.0   10.1489
    12.2    208.0    10.198
   12.25    191.0    9.7724
    12.3    194.0    9.8489
   12.35    185.0    9.6177
    12.4    200.0      10.0
   12.45    203.0   10.0747
    12.5    197.0    9.9247
   12.55    203.0   10.0747
    12.6    200.0      10.0
   12.65    200.0      10.0
    12.7    205.0   10.1242
   12.75    208.0    10.198
    12.8    205.0   10.1242
   12.85    201.0    10.025
    12.9    221.0   10.5119
   12.95    218.0   10.4403
    13.0    218.0   10.4403
   13.05    216.0   10.3923
    13.1    202.0   10.0499
   13.15    206.0   10.1489
    13.2    197.0    9.9247
   13.25    210.0    10.247
    13.3    199.0     9.975
   13.35    219.0   10.4642
    13.4    192.0     9.798
   13.45    211.0   10.2713
    13.5    199.0     9.975
   13.55    196.0    9.8995
    13.6    195.0    9.8742
   13.65    203.0   10.0747
    13.7    202.0   10.0499
   13.75    200.0      10.0
    13.8    199.0     9.975
   13.85    191.0    9.7724
    13.9    204.0   10.0995
   13.95    191.0    9.7724
    14.0    200.0      10.0
   14.05    199.0     9.975
    14.1    197.0    9.9247
   14.15    202.0   10.0499
    14.2    210.0    10.247
   14.25    202.0   10.0499
    14.3    198.0    9.9499
   14.35    191.0    9.7724
    14.4    194.0    9.8489
   14.45    198.0    9.9499
    14.5    194.0    9.8489
   14.55    193.0    9.8234
    14.6    212.0   10.2956
   14.65    214.0   10.3441
    14.7    197.0    9.9247
   14.75    195.0    9.8742
    14.8    205.0   10.1242
   14.85    209.0   10.2225
    14.9    203.0   10.0747
   14.95    197.0    9.9247
    15.0    191.0    9.7724
   15.05    192.0     9.798
    15.1    215.0   10.3682
   15.15    194.0    9.8489
    15.2    189.0    9.7211
   15.25    188.0    9.6954
    15.3    202.0   10.0499
   15.35    201.0    10.025
    15.4    198.0    9.9499
   15.45    208.0    10.198
    15.5    197.0    9.9247
   15.55    187.0    9.6695
    15.6    187.0    9.6695
   15.65    190.0    9.7468
    15.7    197.0    9.9247
   15.75    200.0      10.0
    15.8    193.0    9.8234
   15.85    180.0    9.4868
    15.9    194.0    9.8489
   15.95    206.0   10.1489
    16.0    195.0    9.8742
   16.05    193.0    9.8234
    16.1    205.0   10.1242
   16.15    194.0    9.8489
    16.2    196.0    9.8995
   16.25    194.0    9.8489
    16.3    199.0     9.975
   16.35    207.0   10.1735
    16.4    188.0    9.6954
   16.45    203.0   10.0747
    16.5    188.0    9.6954
   16.55    180.0    9.4868
    16.6    198.0    9.9499
   16.65    200.0      10.0
    16.7    201.0    10.025
   16.75    210.0    10.247
    16.8    206.0   10.1489
   16.85    189.0    9.7211
    16.9    194.0    9.8489
   16.95    187.0    9.6695
    17.0    195.0    9.8742
   17.05    201.0    10.025
    17.1    197.0    9.9247
   17.15    206.0   10.1489
    17.2    208.0    10.198
   17.25    199.0     9.975
    17.3    192.0     9.798
   17.35    193.0    9.8234
    17.4    204.0   10.0995
   17.45    201.0    10.025
    17.5    200.0      10.0
   17.55    177.0    9.4074
    17.6    193.0    9.8234
   17.65    199.0     9.975
    17.7    201.0    10.025
   17.75    194.0    9.8489
    17.8    184.0    9.5917
   17.85    192.0     9.798
    17.9    199.0     9.975
   17.95    190.0    9.7468
    18.0    183.0    9.5656
   18.05    189.0    7.9373
    18.1    196.0    8.0829
   18.15    196.0    8.0829
    18.2    198.0     8.124
   18.25    210.0    8.3666
    18.3    212.0    8.4063
   18.35    219.0     8.544
    18.4    198.0     8.124
   18.45    195.0    8.0623
    18.5    198.0     8.124
   18.55    191.0    7.9791
    18.6    193.0    8.0208
   18.65    197.0    8.1035
    18.7    194.0    8.0416
   18.75    187.0    7.8951
    18.8    209.0    8.3467
   18.85    187.0    7.8951
    18.9    198.0     8.124
   18.95    206.0    8.2865
    19.0    197.0    8.1035
   19.05    191.0    7.9791
    19.1    200.0     8.165
   19.15    207.0    8.3066
    19.2    205.0    8.2664
   19.25    198.0     8.124
    19.3    196.0    8.0829
   19.35    209.0    8.3467
    19.4    211.0    8.3865
   19.45    203.0     8.226
    19.5    200.0     8.165
   19.55    192.0       8.0
    19.6    208.0    8.3267
   19.65    213.0    8.4261
    19.7    221.0    8.5829
   19.75    216.0    8.4853
    19.8    226.0    8.6795
   19.85    228.0    8.7178
    19.9    228.0    8.7178
   19.95    215.0    8.4656
    20.0    224.0     8.641
   20.05    226.0    8.6795
    20.1    213.0    8.4261
   20.15    239.0    8.9256
    20.2    250.0    9.1287
   20.25    247.0    9.0738
    20.3    240.0    8.9443
   20.35    231.0     8.775
    20.4    236.0    8.8694
   20.45    223.0    8.6217
    20.5    231.0     8.775
   20.55    226.0    8.6795
    20.6    214.0    8.4459
   20.65    208.0    8.3267
    20.7    214.0    8.4459
   20.75    196.0    8.0829
    20.8    204.0    8.2462
   20.85    199.0    8.1445
    20.9    186.0     7.874
   20.95    192.0       8.0
    21.0    199.0    8.1445
   21.05    200.0     8.165
    21.1    184.0    7.8316
   21.15    184.0    7.8316
    21.2    189.0    7.9373
   21.25    182.0    7.7889
    21.3    184.0    7.8316
   21.35    185.0    7.8528
    21.4    195.0    8.0623
   21.45    190.0    7.9582
    21.5    194.0    8.0416
   21.55    185.0    7.8528
    21.6    183.0    7.8102
   21.65    193.0    8.0208
    21.7    194.0    8.0416
   21.75    193.0    8.0208
    21.8    188.0    7.9162
   21.85    191.0    7.9791
    21.9    189.0    7.9373
   21.95    188.0    7.9162
    22.0    201.0    8.1854
   22.05    195.0    8.0623
    22.1    205.0    8.2664
   22.15    200.0     8.165
    22.2    200.0     8.165
   22.25    192.0       8.0
    22.3    197.0    8.1035
   22.35    204.0    8.2462
    22.4    207.0    8.3066
   22.45    192.0       8.0
    22.5    201.0    8.1854
   22.55    190.0    7.9582
    22.6    195.0    8.0623
   22.65    194.0    8.0416
    22.7    182.0    7.7889
   22.75    189.0    7.9373
    22.8    196.0    8.0829
   22.85    196.0    8.0829
    22.9    200.0     8.165
   22.95    190.0    7.9582
    23.0    183.0    7.8102
   23.05    199.0    8.1445
    23.1    187.0    7.8951
   23.15    196.0    8.0829
    23.2    191.0    7.9791
   23.25    191.0    7.9791
    23.3    195.0    8.0623
   23.35    194.0    8.0416
    23.4    192.0       8.0
   23.45    182.0    7.7889
    23.5    188.0    7.9162
   23.55    203.0     8.226
    23.6    187.0    7.8951
   23.65    192.0       8.0
    23.7    206.0    8.2865
   23.75    201.0    8.1854
    23.8    184.0    7.8316
   23.85    192.0       8.0
    23.9    205.0    8.2664
   23.95    196.0    8.0829
    24.0    193.0    8.0208
   24.05    194.0    6.9642
    24.1    195.0    6.9821
   24.15    194.0    6.9642
    24.2    201.0    7.0887
   24.25    193.0    6.9462
    24.3    176.0    6.6332
   24.35    187.0    6.8374
    24.4    188.0    6.8557
   24.45    196.0       7.0
    24.5    192.0    6.9282
   24.55    185.0    6.8007
    24.6    195.0    6.9821
   24.65    198.0    7.0356
    24.7    205.0    7.1589
   24.75    200.0    7.0711
    24.8    208.0    7.2111
   24.85    195.0    6.9821
    24.9    187.0    6.8374
   24.95    193.0    6.9462
    25.0    197.0    7.0178
   25.05    202.0    7.1063
    25.1    193.0    6.9462
   25.15    196.0       7.0
    25.2    202.0    7.1063
   25.25    201.0    7.0887
    25.3    197.0    7.0178
   25.35    204.0    7.1414
    25.4    208.0    7.2111
   25.45    206.0    7.1764
    25.5    212.0    7.2801
   25.55    207.0    7.1937
    25.6    207.0    7.1937
   25.65    212.0    7.2801
    25.7    216.0    7.3485
   25.75    218.0    7.3824
    25.8    221.0     7.433
   25.85    218.0    7.3824
    25.9    207.0    7.1937
   25.95    203.0    7.1239
    26.0    204.0    7.1414
   26.05    202.0    7.1063
    26.1    206.0    7.1764
   26.15    202.0    7.1063
    26.2    202.0    7.1063
   26.25    181.0    6.7268
    26.3    193.0    6.9462
   26.35    205.0    7.1589
    26.4    198.0    7.0356
   26.45    196.0       7.0
    26.5    197.0    7.0178
   26.55    195.0    6.9821
    26.6    201.0    7.0887
   26.65    205.0    7.1589
    26.7    195.0    6.9821
   26.75    196.0       7.0
    26.8    196.0       7.0
   26.85    205.0    7.1589
    26.9    198.0    7.0356
   26.95    200.0    7.0711
    27.0    199.0    7.0534
   27.05    180.0    6.7082
    27.1    187.0    6.8374
   27.15    193.0    6.9462
    27.2    197.0    7.0178
   27.25    197.0    7.0178
    27.3    196.0       7.0
   27.35    194.0    6.9642
    27.4    197.0    7.0178
   27.45    204.0    7.1414
    27.5    201.0    7.0887
   27.55    187.0    6.8374
    27.6    191.0    6.9101
   27.65    205.0    7.1589
    27.7    200.0    7.0711
   27.75    198.0    7.0356
    27.8    200.0    7.0711
   27.85    204.0    7.1414
    27.9    196.0       7.0
   27.95    195.0    6.9821
    28.0    194.0    6.9642
   28.05    200.0    7.0711
    28.1    198.0    7.0356
   28.15    201.0    7.0887
    28.2    208.0    7.2111
   28.25    205.0    7.1589
    28.3    211.0    7.2629
   28.35    211.0    7.2629
    28.4    220.0    7.4162
   28.45    220.0    7.4162
    28.5    212.0    7.2801
   28.55    208.0    7.2111
    28.6    214.0    7.3144
   28.65    226.0    7.5166
    28.7    235.0    7.6649
   28.75    233.0    7.6322
    28.8    237.0    7.6974
   28.85    242.0    7.7782
    28.9    242.0    7.7782
   28.95    245.0    7.8262
    29.0    239.0    7.7298
   29.05    226.0    7.5166
    29.1    232.0    7.6158
   29.15    238.0    7.7136
    29.2    226.0    7.5166
   29.25    218.0    7.3824
    29.3    218.0    7.3824
   29.35    214.0    7.3144
    29.4    205.0    7.1589
   29.45    200.0    7.0711
    29.5    193.0    6.9462
   29.55    195.0    6.9821
    29.6    196.0       7.0
   29.65    195.0    6.9821
    29.7    207.0    7.1937
   29.75    215.0    7.3314
    29.8    207.0    7.1937
   29.85    218.0    7.3824
    29.9    218.0    7.3824
   29.95    220.0    7.4162
    30.0    220.0    7.4162
   30.05    229.0    6.7676
    30.1    236.0    6.8702
   30.15    254.0    7.1274
    30.2    264.0    7.2664
   30.25    280.0    7.4833
    30.3    289.0    7.6026
   30.35    289.0    7.6026
    30.4    303.0    7.7846
   30.45    302.0    7.7717
    30.5    297.0    7.7071
   30.55    281.0    7.4967
    30.6    278.0    7.4565
   30.65    280.0    7.4833
    30.7    265.0    7.2801
   30.75    258.0    7.1833
    30.8    243.0    6.9714
   30.85    240.0    6.9282
    30.9    232.0    6.8118
   30.95    231.0    6.7971
    31.0    233.0    6.8264
   31.05    246.0    7.0143
    31.1    248.0    7.0427
   31.15    249.0    7.0569
    31.2    256.0    7.1554
   31.25    272.0    7.3756
    31.3    289.0    7.6026
   31.35    311.0    7.8867
    31.4    340.0    8.2462
   31.45    363.0    8.5206
    31.5    393.0    8.8657
   31.55    440.0    9.3808
    31.6    474.0    9.7365
   31.65    482.0    9.8183
    31.7    492.0    9.9197
   31.75    508.0   10.0797
    31.8    494.0    9.9398
   31.85    475.0    9.7468
    31.9    439.0    9.3702
   31.95    413.0    9.0885
    32.0    368.0     8.579
   32.05    331.0    8.1363
    32.1    299.0     7.733
   32.15    286.0    7.5631
    32.2    262.0    7.2388
   32.25    241.0    6.9426
    32.3    238.0    6.8993
   32.35    252.0    7.0993
    32.4    267.0    7.3075
   32.45    276.0    7.4297
    32.5    278.0    7.4565
   32.55    300.0     7.746
    32.6    325.0    8.0623
   32.65    336.0    8.1976
    32.7    359.0    8.4735
   32.75    405.0       9.0
    32.8    458.0    9.5708
   32.85    501.0     10.01
    32.9    564.0   10.6207
   32.95    640.0   11.3137
    33.0    719.0   11.9917
   33.05    783.0    12.514
    33.1    837.0   12.9383
   33.15    851.0   13.0461
    33.2    866.0   13.1605
   33.25    828.0   12.8686
    33.3    763.0   12.3531
   33.35    697.0   11.8068
    33.4    634.0   11.2606
   33.45    541.0   10.4019
    33.5    465.0    9.6437
   33.55    391.0    8.8431
    33.6    351.0    8.3785
   33.65    301.0    7.7589
    33.7    284.0    7.5366
   33.75    260.0    7.2111
    33.8    248.0    7.0427
   33.85    257.0    7.1694
    33.9    242.0     6.957
   33.95    246.0    7.0143
    34.0    263.0    7.2526
   34.05    271.0    7.3621
    34.1    281.0    7.4967
   34.15    302.0    7.7717
    34.2    309.0    7.8613
   34.25    335.0    8.1854
    34.3    342.0    8.2704
   34.35    345.0    8.3066
    34.4    356.0     8.438
   34.45    351.0    8.3785
    34.5    341.0    8.2583
   34.55    334.0    8.1731
    34.6    321.0    8.0125
   34.65    286.0    7.5631
    34.7    268.0    7.3212
   34.75    256.0    7.1554
    34.8    238.0    6.8993
   34.85    229.0    6.7676
    34.9    218.0     6.603
   34.95    223.0    6.6783
    35.0    216.0    6.5727
   35.05    203.0    6.3718
    35.1    203.0    6.3718
   35.15    194.0     6.229
    35.2    205.0    6.4031
   35.25    196.0     6.261
    35.3    193.0    6.2129
   35.35    206.0    6.4187
    35.4    201.0    6.3403
   35.45    201.0    6.3403
    35.5    201.0    6.3403
   35.55    200.0    6.3246
    35.6    194.0     6.229
   35.65    196.0     6.261
    35.7    203.0    6.3718
   35.75    195.0     6.245
    35.8    196.0     6.261
   35.85    211.0    6.4962
    35.9    216.0    6.5727
   35.95    207.0    6.4343
    36.0    215.0    6.5574
   36.05    221.0    6.6483
    36.1    237.0    6.2849
   36.15    248.0    6.4291
    36.2    261.0    6.5955
   36.25    279.0    6.8191
    36.3    319.0    7.2915
   36.35    337.0    7.4944
    36.4    364.0    7.7889
   36.45    423.0    8.3964
    36.5    489.0    9.0277
   36.55    557.0     9.635
    36.6    630.0    10.247
   36.65    729.0   11.0227
    36.7    822.0   11.7047
   36.75    943.0   12.5366
    36.8   1059.0   13.2853
   36.85   1196.0   14.1185
    36.9   1235.0   14.3469
   36.95   1220.0   14.2595
    37.0   1209.0   14.1951
   37.05   1128.0   13.7113
    37.1   1001.0   12.9164
   37.15    864.0      12.0
    37.2    729.0   11.0227
   37.25    601.0   10.0083
    37.3    496.0    9.0921
   37.35    418.0    8.3467
    37.4    355.0     7.692
   37.45    313.0    7.2226
    37.5    263.0    6.6207
   37.55    246.0    6.4031
    37.6    226.0    6.1373
   37.65    214.0    5.9722
    37.7    222.0    6.0828
   37.75    222.0    6.0828
    37.8    211.0    5.9301
   37.85    211.0    5.9301
    37.9    202.0    5.8023
   37.95    198.0    5.7446
    38.0    192.0    5.6569
   38.05    193.0    5.6716
    38.1    196.0    5.7155
   38.15    201.0    5.7879
    38.2    203.0    5.8166
   38.25    203.0    5.8166
    38.3    201.0    5.7879
   38.35    198.0    5.7446
    38.4    196.0    5.7155
   38.45    206.0    5.8595
    38.5    210.0    5.9161
   38.55    197.0      5.73
    38.6    204.0     5.831
   38.65    200.0    5.7735
    38.7    205.0    5.8452
   38.75    196.0    5.7155
    38.8    195.0    5.7009
   38.85    205.0    5.8452
    38.9    204.0     5.831
   38.95    200.0    5.7735
    39.0    203.0    5.8166
   39.05    208.0    5.8878
    39.1    207.0    5.8737
   39.15    202.0    5.8023
    39.2    203.0    5.8166
   39.25    198.0    5.7446
    39.3    204.0     5.831
   39.35    210.0    5.9161
    39.4    216.0       6.0
   39.45    210.0    5.9161
    39.5    229.0    6.1779
   39.55    239.0    6.3114
    39.6    247.0    6.4161
   39.65    278.0    6.8069
    39.7    302.0    7.0946
   39.75    324.0    7.3485
    39.8    371.0    7.8634
   39.85    420.0    8.3666
    39.9    465.0    8.8034
   39.95    538.0    9.4692
    40.0    630.0    10.247
   40.05    739.0    11.098
    40.1    851.0   11.9094
   40.15    976.0   12.7541
    40.2   1076.0   13.3915
   40.25   1161.0   13.9104
    40.3   1222.0   14.2712
   40.35   1227.0   14.3003
    40.4   1187.0   14.0653
   40.45   1096.0   13.5154
    40.5    964.0   12.6754
   40.55    833.0   11.7828
    40.6    708.0   10.8628
   40.65    587.0    9.8911
    40.7    512.0    9.2376
   40.75    436.0    8.5245
    40.8    391.0    8.0726
   40.85    384.0       8.0
    40.9    370.0    7.8528
   40.95    391.0    8.0726
    41.0    419.0    8.3566
   41.05    448.0     8.641
    41.1    490.0     9.037
   41.15    567.0    9.7211
    41.2    626.0   10.2144
   41.25    687.0   10.7005
    41.3    735.0    11.068
   41.35    780.0   11.4018
    41.4    782.0   11.4164
   41.45    745.0    11.143
    41.5    721.0   10.9621
   41.55    662.0    10.504
    41.6    595.0    9.9582
   41.65    527.0    9.3719
    41.7    446.0    8.6217
   41.75    393.0    8.0932
    41.8    335.0    7.4722
   41.85    301.0    7.0828
    41.9    276.0    6.7823
   41.95    251.0    5.9881
    42.0    242.0    5.8797
   42.05    229.0    5.7196
    42.1    209.0    5.4642
   42.15    215.0     5.542
    42.2    218.0    5.5806
   42.25    214.0    5.5291
    42.3    209.0    5.4642
   42.35    208.0    5.4511
    42.4    212.0    5.5032
   42.45    210.0    5.4772
    42.5    209.0    5.4642
   42.55    210.0    5.4772
    42.6    205.0    5.4116
   42.65    209.0    5.4642
    42.7    211.0    5.4903
   42.75    211.0    5.4903
    42.8    216.0    5.5549
   42.85    205.0    5.4116
    42.9    204.0    5.3984
   42.95    202.0    5.3719
    43.0    201.0    5.3586
   43.05    200.0    5.3452
    43.1    207.0     5.438
   43.15    205.0    5.4116
    43.2    202.0    5.3719
   43.25    209.0    5.4642
